x (microm)	Transmission
0	0.5470
4.4	0.5330
8.8	0.5016
13.2	0.3914
17.6	0.3395
22	0.3243
26.4	0.3081
30.8	0.2951
35.2	0.2281
39.6	0.2400
44	0.2778
48.4	0.2800
52.8	0.2508
57.2	0.2097
61.6	0.2097
66	0.1903
70.4	0.1751
74.8	0.1827
79.2	0.1741
83.6	0.1741
88	0.1686
92.4	0.1827
96.8	0.2000
101.2	0.2314
105.6	0.2692
110	0.3092
114.4	0.3319
118.8	0.3751
123.2	0.4259
127.6	0.4692
132	0.5211
136.4	0.5600
140.8	0.6497
145.2	0.7232
149.6	0.7622
154	0.8541
158.4	0.9146
162.8	0.9211
167.2	0.9276
171.6	0.9751
176	0.9924
180.4	0.9535
184.8	0.8519
189.2	0.7730
193.6	0.7405
198	0.7049
202.4	0.6022
206.8	0.5384
211.2	0.4486
215.6	0.3492
220	0.2919
224.4	0.2216
228.8	0.1697
233.2	0.1286
237.6	0.0811
242	0.0703
246.4	0.0800
250.8	0.0897
255.2	0.0800
259.6	0.0714
264	0.0897
268.4	0.0962
272.8	0.1038
277.2	0.1232
281.6	0.1373
286	0.1795
290.4	0.2486
294.8	0.3016
299.2	0.3827
303.6	0.4357
308	0.5276
312.4	0.6238
316.8	0.6930
321.2	0.7524
325.6	0.8346
330	0.8757
334.4	0.8573
338.8	0.8497
343.2	0.8162
347.6	0.7481
352	0.6832
356.4	0.6476
360.8	0.5914
365.2	0.4692
369.6	0.4119
374	0.3589
378.4	0.3200
382.8	0.2573
387.2	0.2130
391.6	0.1968
396	0.1719
400.4	0.1568
404.8	0.1546
409.2	0.1416
413.6	0.1330
418	0.1459
422.4	0.1481
426.8	0.1622
431.2	0.1924
435.6	0.2249
440	0.2249
444.4	0.2259
448.8	0.2724
453.2	0.3459
457.6	0.4303
462	0.4757
466.4	0.5243
470.8	0.5957
475.2	0.6314
479.6	0.6595
484	0.7503
488.4	0.8486
492.8	0.8811
497.2	0.8876
501.6	0.8173
506	0.7438
510.4	0.6757
514.8	0.6249
519.2	0.6032
523.6	0.5492
528	0.5059
532.4	0.4746
536.8	0.4141
541.2	0.3492
545.6	0.2951
550	0.2432
554.4	0.1838
558.8	0.1438
563.2	0.1254
567.6	0.1168
572	0.1114
576.4	0.1222
580.8	0.1211
585.2	0.1135
589.6	0.1243
594	0.1568
598.4	0.1859
602.8	0.1968
607.2	0.2573
611.6	0.3362
616	0.3892
620.4	0.4800
624.8	0.5827
629.2	0.7092
633.6	0.7697
638	0.7762
642.4	0.7481
646.8	0.6822
651.2	0.6281
655.6	0.6670
660	0.6800
664.4	0.6627
668.8	0.7265
673.2	0.7103
677.6	0.6259
682	0.5773
686.4	0.5503
690.8	0.4659
695.2	0.3805
699.6	0.3124
704	0.2789
708.4	0.2724
712.8	0.2605
717.2	0.2432
721.6	0.2205
726	0.1914
730.4	0.1946
734.8	0.1978
739.2	0.2097
743.6	0.2043
748	0.1870
752.4	0.1989
756.8	0.2270
761.2	0.2757
765.6	0.2854
770	0.2854
774.4	0.3557
778.8	0.4584
783.2	0.5405
787.6	0.6130
792	0.6573
796.4	0.7676
800.8	0.8724
805.2	0.9330
809.6	0.9741
814	0.9903
818.4	0.9924
822.8	0.9146
827.2	0.8443
831.6	0.8768
836	0.8389
840.4	0.7416
844.8	0.6519
849.2	0.5276
853.6	0.4573
858	0.4000
862.4	0.3622
866.8	0.3232
871.2	0.2627
875.6	0.2086
880	0.1827
884.4	0.1730
888.8	0.1568
893.2	0.1308
897.6	0.1222
902	0.1189
906.4	0.1211
910.8	0.1243
915.2	0.1449
919.6	0.1676
924	0.1730
928.4	0.2076
932.8	0.2627
937.2	0.3124
941.6	0.3546
946	0.4097
950.4	0.4735
954.8	0.5297
959.2	0.5568
963.6	0.5816
968	0.6519
972.4	0.7027
976.8	0.7135
981.2	0.7059
985.6	0.7114
990	0.6832
994.4	0.6941
998.8	0.6908
1003.2	0.6616
1007.6	0.5773
1012	0.5005
1016.4	0.4346
1020.8	0.3568
1025.2	0.2886
1029.6	0.2400
1034	0.2076
1038.4	0.1773
1042.8	0.1189
1047.2	0.1070
1051.6	0.1146
1056	0.1265
1060.4	0.1341
1064.8	0.1557
1069.2	0.1805
1073.6	0.1816
1078	0.1849
1082.4	0.1924
1086.8	0.2141
1091.2	0.2162
1095.6	0.2249
1100	0.2432
1104.4	0.2908
1108.8	0.3697
1113.2	0.4227
1117.6	0.4443
1122	0.4897
1126.4	0.5589
1130.8	0.6011
1135.2	0.6508
1139.6	0.6919
1144	0.7059
1148.4	0.7643
1152.8	0.7805
1157.2	0.7784
1161.6	0.8076
1166	0.7481
1170.4	0.6616
1174.8	0.5741
1179.2	0.4378
1183.6	0.3795
1188	0.3492
1192.4	0.2789
1196.8	0.2270
1201.2	0.1568
1205.6	0.1395
1210	0.1524
1214.4	0.1578
1218.8	0.1914
1223.2	0.2400
1227.6	0.2714
1232	0.2746
1236.4	0.3168
1240.8	0.3870
1245.2	0.4238
1249.6	0.4930
1254	0.5924
1258.4	0.6184
1262.8	0.6962
1267.2	0.8141
1271.6	0.8530
1276	0.8692
1280.4	0.8768
1284.8	0.8584
1289.2	0.8454
1293.6	0.8486
1298	0.8422
1302.4	0.7903
1306.8	0.7362
1311.2	0.6995
1315.6	0.6995
1320	0.6562
1324.4	0.5276
1328.8	0.4486
1333.2	0.3914
1337.6	0.3449
1342	0.3243
1346.4	0.3189
1350.8	0.3157
1355.2	0.3092
1359.6	0.2714
1364	0.2530
1368.4	0.2519
1372.8	0.2346
1377.2	0.2216
1381.6	0.2097
1386	0.2184
1390.4	0.2486
1394.8	0.3059
1399.2	0.2930
1403.6	0.3124
1408	0.3708
1412.4	0.4627
1416.8	0.5405
1421.2	0.6832
1425.6	0.7676
1430	0.7946
1434.4	0.8941
1438.8	1.0000
